  
       XFOIL         Version 6.94
  
 Calculated polar for: NASA/LANGLEY LS(1)-0413 (GA(W)-2) AIRFOIL       
  
 1 1 Reynolds number fixed          Mach number fixed         
  
 xtrf =   1.000 (top)        1.000 (bottom)  
 Mach =   0.000     Re =     1.400 e 6     Ncrit =   9.000
  
  alpha     CL        CD       CDp       CM    Top_Xtr Bot_Xtr
 ------- -------- --------- --------- -------- ------- -------
 -15.000  -0.4910   0.15565   0.15369  -0.0215  1.0000  0.0176
 -14.750  -0.4770   0.15468   0.15273  -0.0237  1.0000  0.0241
 -14.500  -1.1044   0.02768   0.02294  -0.0798  1.0000  0.0051
 -14.250  -1.1287   0.02519   0.02030  -0.0752  1.0000  0.0052
 -14.000  -1.1516   0.02277   0.01758  -0.0704  1.0000  0.0073
 -13.750  -1.1181   0.02298   0.01797  -0.0718  0.9991  0.0090
 -13.500  -1.0791   0.02421   0.01945  -0.0730  0.9985  0.0099
 -13.250  -1.0325   0.02688   0.02250  -0.0740  0.9983  0.0106
 -13.000  -0.9730   0.03210   0.02832  -0.0735  0.9995  0.0111
 -12.250  -0.4276   0.11734   0.11534  -0.0405  1.0000  0.0249
 -12.000  -0.4253   0.11313   0.11114  -0.0423  1.0000  0.0250
 -11.750  -0.4237   0.10881   0.10684  -0.0442  1.0000  0.0250
 -11.500  -0.4228   0.10432   0.10235  -0.0462  1.0000  0.0250
 -11.250  -0.4230   0.09964   0.09769  -0.0484  1.0000  0.0250
 -11.000  -0.4249   0.09474   0.09280  -0.0506  1.0000  0.0250
 -10.750  -0.4297   0.08958   0.08766  -0.0527  1.0000  0.0250
 -10.500  -0.4404   0.08408   0.08220  -0.0545  0.9998  0.0250
 -10.250  -0.4668   0.02566   0.02337  -0.0920  0.9642  0.0206
 -10.000  -0.5105   0.01962   0.01699  -0.0924  0.9457  0.0192
  -9.750  -0.4777   0.05340   0.05111  -0.0878  0.9766  0.0250
  -9.500  -0.4842   0.04890   0.04641  -0.0910  0.9619  0.0249
  -9.250  -0.5704   0.01994   0.01520  -0.0938  0.9383  0.0143
  -9.000  -0.5466   0.01878   0.01390  -0.0938  0.9319  0.0143
  -8.750  -0.5218   0.01772   0.01270  -0.0939  0.9249  0.0144
  -8.500  -0.4966   0.01671   0.01159  -0.0940  0.9206  0.0145
  -8.250  -0.4710   0.01576   0.01053  -0.0941  0.9155  0.0147
  -8.000  -0.4450   0.01490   0.00954  -0.0943  0.9102  0.0150
  -7.750  -0.4185   0.01418   0.00872  -0.0944  0.9049  0.0150
  -7.500  -0.3912   0.01351   0.00796  -0.0948  0.8993  0.0154
  -7.250  -0.3634   0.01294   0.00736  -0.0952  0.8956  0.0160
  -7.000  -0.3351   0.01253   0.00694  -0.0956  0.8913  0.0167
  -6.750  -0.3067   0.01211   0.00649  -0.0960  0.8867  0.0172
  -6.500  -0.2782   0.01153   0.00582  -0.0965  0.8822  0.0173
  -6.250  -0.2492   0.01098   0.00517  -0.0971  0.8771  0.0172
  -6.000  -0.2194   0.01053   0.00464  -0.0978  0.8731  0.0173
  -5.750  -0.1894   0.01013   0.00419  -0.0984  0.8697  0.0175
  -5.500  -0.1594   0.00978   0.00380  -0.0991  0.8658  0.0179
  -5.250  -0.1293   0.00948   0.00342  -0.0997  0.8618  0.0188
  -5.000  -0.0993   0.00925   0.00318  -0.1003  0.8578  0.0214
  -4.750  -0.0697   0.00914   0.00307  -0.1008  0.8533  0.0240
  -4.500  -0.0401   0.00910   0.00303  -0.1013  0.8488  0.0250
  -4.250  -0.0101   0.00894   0.00289  -0.1019  0.8456  0.0266
  -4.000   0.0205   0.00866   0.00264  -0.1026  0.8419  0.0341
  -3.750   0.0509   0.00846   0.00249  -0.1033  0.8383  0.0442
  -3.500   0.0815   0.00822   0.00234  -0.1041  0.8348  0.0684
  -3.250   0.1128   0.00784   0.00218  -0.1052  0.8310  0.1325
  -3.000   0.1451   0.00733   0.00202  -0.1068  0.8267  0.2402
  -2.750   0.1777   0.00684   0.00190  -0.1084  0.8232  0.3486
  -2.500   0.2106   0.00631   0.00177  -0.1101  0.8193  0.4660
  -2.250   0.2426   0.00595   0.00176  -0.1112  0.8142  0.5762
  -2.000   0.2725   0.00590   0.00180  -0.1116  0.8085  0.6218
  -1.750   0.3019   0.00599   0.00188  -0.1118  0.8014  0.6501
  -1.500   0.3313   0.00601   0.00197  -0.1120  0.7963  0.6679
  -1.250   0.3610   0.00605   0.00201  -0.1123  0.7916  0.6778
  -1.000   0.3901   0.00606   0.00205  -0.1125  0.7860  0.6869
  -0.750   0.4193   0.00611   0.00206  -0.1127  0.7788  0.6914
  -0.500   0.4488   0.00615   0.00207  -0.1130  0.7725  0.6947
  -0.250   0.4785   0.00615   0.00208  -0.1133  0.7659  0.6977
   0.000   0.5075   0.00621   0.00206  -0.1135  0.7557  0.7005
   0.250   0.5365   0.00620   0.00204  -0.1137  0.7444  0.7050
   0.500   0.5655   0.00622   0.00205  -0.1138  0.7332  0.7084
   0.750   0.5944   0.00629   0.00209  -0.1140  0.7245  0.7120
   1.000   0.6239   0.00632   0.00214  -0.1143  0.7163  0.7155
   1.250   0.6527   0.00639   0.00217  -0.1145  0.7044  0.7190
   1.500   0.6817   0.00647   0.00222  -0.1147  0.6920  0.7223
   1.750   0.7100   0.00661   0.00228  -0.1147  0.6744  0.7249
   2.000   0.7378   0.00671   0.00231  -0.1147  0.6463  0.7294
   2.250   0.7637   0.00700   0.00243  -0.1143  0.5931  0.7324
   2.500   0.7872   0.00757   0.00266  -0.1136  0.5182  0.7350
   2.750   0.8097   0.00828   0.00298  -0.1128  0.4327  0.7375
   3.000   0.8333   0.00888   0.00328  -0.1122  0.3668  0.7400
   3.250   0.8562   0.00955   0.00360  -0.1116  0.2969  0.7427
   3.750   0.9054   0.01049   0.00413  -0.1108  0.2123  0.7479
   4.000   0.9303   0.01093   0.00443  -0.1104  0.1819  0.7497
   4.250   0.9560   0.01123   0.00465  -0.1101  0.1625  0.7530
   4.500   0.9816   0.01152   0.00488  -0.1098  0.1465  0.7566
   4.750   1.0066   0.01186   0.00514  -0.1094  0.1302  0.7599
   5.000   1.0321   0.01215   0.00540  -0.1091  0.1178  0.7630
   5.250   1.0565   0.01255   0.00569  -0.1086  0.1029  0.7660
   5.500   1.0824   0.01278   0.00593  -0.1083  0.0976  0.7690
   5.750   1.1076   0.01308   0.00617  -0.1080  0.0907  0.7718
   6.000   1.1315   0.01349   0.00648  -0.1074  0.0789  0.7742
   6.250   1.1568   0.01373   0.00673  -0.1071  0.0743  0.7777
   6.500   1.1821   0.01393   0.00696  -0.1067  0.0724  0.7817
   6.750   1.2068   0.01419   0.00724  -0.1063  0.0695  0.7854
   7.000   1.2297   0.01459   0.00760  -0.1056  0.0607  0.7890
   7.250   1.2529   0.01496   0.00794  -0.1049  0.0532  0.7927
   7.500   1.2766   0.01527   0.00826  -0.1042  0.0495  0.7965
   7.750   1.3000   0.01559   0.00858  -0.1036  0.0475  0.7996
   8.000   1.3222   0.01595   0.00893  -0.1028  0.0442  0.8047
   8.250   1.3428   0.01641   0.00934  -0.1016  0.0401  0.8094
   8.500   1.3639   0.01681   0.00973  -0.1006  0.0370  0.8138
   8.750   1.3850   0.01719   0.01012  -0.0996  0.0353  0.8181
   9.000   1.4045   0.01763   0.01056  -0.0982  0.0326  0.8222
   9.250   1.4225   0.01815   0.01105  -0.0967  0.0293  0.8263
   9.500   1.4376   0.01862   0.01154  -0.0946  0.0260  0.8324
   9.750   1.4548   0.01907   0.01202  -0.0929  0.0245  0.8378
  10.000   1.4727   0.01952   0.01256  -0.0913  0.0242  0.8433
  10.250   1.4900   0.02003   0.01311  -0.0898  0.0233  0.8483
  10.500   1.5067   0.02057   0.01369  -0.0881  0.0220  0.8545
  10.750   1.5226   0.02116   0.01432  -0.0865  0.0202  0.8614
  11.000   1.5374   0.02186   0.01504  -0.0847  0.0181  0.8684
  11.250   1.5517   0.02262   0.01580  -0.0829  0.0159  0.8748
  11.500   1.5659   0.02330   0.01653  -0.0811  0.0136  0.8844
  11.750   1.5804   0.02397   0.01725  -0.0794  0.0123  0.8947
  12.000   1.5941   0.02467   0.01802  -0.0776  0.0117  0.9078
  12.500   1.6140   0.02622   0.01971  -0.0729  0.0096  1.0000
  12.750   1.6154   0.02815   0.02159  -0.0702  0.0048  1.0000
  13.000   1.6253   0.02941   0.02286  -0.0685  0.0044  1.0000
  13.250   1.6351   0.03069   0.02417  -0.0668  0.0040  1.0000
  13.500   1.6446   0.03200   0.02551  -0.0652  0.0035  1.0000
  13.750   1.6545   0.03331   0.02686  -0.0637  0.0031  1.0000
  14.000   1.6636   0.03467   0.02827  -0.0623  0.0028  1.0000
  14.250   1.6724   0.03607   0.02974  -0.0608  0.0026  1.0000
  14.500   1.6798   0.03761   0.03135  -0.0594  0.0024  1.0000
  14.750   1.6871   0.03922   0.03304  -0.0580  0.0023  1.0000
  15.000   1.6926   0.04100   0.03492  -0.0567  0.0022  1.0000
  15.250   1.6981   0.04284   0.03683  -0.0554  0.0021  1.0000
  15.500   1.7019   0.04486   0.03898  -0.0542  0.0021  1.0000
  15.750   1.7051   0.04697   0.04118  -0.0530  0.0021  1.0000
  16.000   1.7069   0.04931   0.04362  -0.0520  0.0021  1.0000
  16.250   1.7076   0.05184   0.04626  -0.0511  0.0021  1.0000
  16.500   1.7077   0.05455   0.04908  -0.0504  0.0021  1.0000
  16.750   1.7059   0.05758   0.05223  -0.0499  0.0021  1.0000
  17.000   1.7026   0.06090   0.05566  -0.0496  0.0021  1.0000
  17.250   1.6980   0.06447   0.05936  -0.0495  0.0021  1.0000
  17.500   1.6914   0.06841   0.06343  -0.0497  0.0021  1.0000
  17.750   1.6827   0.07284   0.06800  -0.0503  0.0021  1.0000
  18.000   1.6717   0.07783   0.07313  -0.0513  0.0021  1.0000
  18.250   1.6579   0.08345   0.07890  -0.0529  0.0021  1.0000
  18.500   1.6417   0.08966   0.08527  -0.0550  0.0021  1.0000
  18.750   1.6214   0.09678   0.09255  -0.0577  0.0021  1.0000
  19.000   1.5972   0.10481   0.10077  -0.0612  0.0021  1.0000
  19.250   1.5682   0.11404   0.11018  -0.0657  0.0021  1.0000
  19.500   1.5330   0.12481   0.12116  -0.0712  0.0021  1.0000
  19.750   1.4902   0.13742   0.13399  -0.0781  0.0021  1.0000
  20.000   1.4401   0.15195   0.14876  -0.0865  0.0021  1.0000
  20.250   1.3826   0.16907   0.16612  -0.0970  0.0021  1.0000
  20.500   1.3334   0.18546   0.18271  -0.1076  0.0021  1.0000
  20.750   1.2563   0.21148   0.20904  -0.1249  0.0022  1.0000
  21.000   1.2504   0.21824   0.21585  -0.1296  0.0022  1.0000
  21.250   1.2500   0.22337   0.22103  -0.1332  0.0022  1.0000
  21.500   1.2508   0.22815   0.22585  -0.1365  0.0022  1.0000
  21.750   1.2521   0.23280   0.23055  -0.1399  0.0022  1.0000
  22.000   1.2533   0.23755   0.23535  -0.1433  0.0022  1.0000
